Two-way transmissions levels downs to 8 pressures.
Pressures (bar) are :       2.00000      1.40000      1.20000      1.00000
     0.900000     0.800000     0.700000     0.600000
Wavelength (nm), Transmissions (1 - 8)
      476.000     0.999801     0.999877     0.999900     0.999921     0.999931
     0.999940     0.999949     0.999957
      477.000     0.999706     0.999816     0.999849     0.999880     0.999895
     0.999908     0.999922     0.999934
      478.000     0.999551     0.999716     0.999766     0.999813     0.999835
     0.999856     0.999877     0.999897
      479.000     0.999295     0.999547     0.999625     0.999700     0.999734
     0.999768     0.999801     0.999833
      480.000     0.998899     0.999285     0.999407     0.999522     0.999576
     0.999628     0.999680     0.999730
      481.000     0.998514     0.999024     0.999185     0.999340     0.999413
     0.999484     0.999555     0.999624
      482.000     0.998050     0.998707     0.998918     0.999121     0.999218
     0.999312     0.999406     0.999497
      483.000     0.997431     0.998262     0.998533     0.998798     0.998927
     0.999051     0.999177     0.999301
      484.000     0.995882     0.997137     0.997557     0.997974     0.998181
     0.998382     0.998588     0.998794
      485.000     0.993525     0.995445     0.996099     0.996755     0.997083
     0.997404     0.997735     0.998068
      486.000     0.992486     0.994738     0.995497     0.996255     0.996632
     0.997001     0.997380     0.997761
      487.000     0.995636     0.997091     0.997549     0.997994     0.998210
     0.998418     0.998629     0.998838
      488.000     0.997990     0.998707     0.998930     0.999142     0.999242
     0.999337     0.999431     0.999520
      489.000     0.999416     0.999650     0.999717     0.999777     0.999805
     0.999832     0.999857     0.999881
      490.000     0.999815     0.999892     0.999914     0.999934     0.999943
     0.999951     0.999959     0.999966
      491.000     0.999886     0.999934     0.999947     0.999959     0.999965
     0.999970     0.999974     0.999979
      492.000     0.999924     0.999956     0.999965     0.999973     0.999977
     0.999980     0.999983     0.999986
      493.000     0.999949     0.999972     0.999978     0.999983     0.999985
     0.999988     0.999990     0.999991
      494.000     0.999976     0.999987     0.999991     0.999993     0.999994
     0.999995     0.999996     0.999997
      495.000     0.999976     0.999988     0.999991     0.999993     0.999994
     0.999995     0.999996     0.999997
      496.000     0.999950     0.999973     0.999978     0.999984     0.999986
     0.999988     0.999990     0.999992
      497.000     0.999910     0.999949     0.999960     0.999970     0.999974
     0.999978     0.999981     0.999985
      498.000     0.999860     0.999920     0.999937     0.999952     0.999959
     0.999965     0.999970     0.999976
      499.000     0.999777     0.999871     0.999898     0.999921     0.999932
     0.999941     0.999951     0.999960
      500.000     0.999686     0.999817     0.999854     0.999888     0.999903
     0.999917     0.999930     0.999942
      501.000     0.999570     0.999747     0.999797     0.999843     0.999863
     0.999882     0.999900     0.999918
      502.000     0.999412     0.999647     0.999715     0.999777     0.999806
     0.999833     0.999858     0.999882
      503.000     0.999181     0.999500     0.999594     0.999681     0.999721
     0.999758     0.999794     0.999829
      504.000     0.998929     0.999336     0.999458     0.999572     0.999624
     0.999674     0.999722     0.999767
      505.000     0.998638     0.999141     0.999294     0.999438     0.999505
     0.999568     0.999631     0.999691
      506.000     0.998325     0.998928     0.999113     0.999288     0.999371
     0.999450     0.999528     0.999603
      507.000     0.997846     0.998589     0.998824     0.999050     0.999157
     0.999260     0.999363     0.999462
      508.000     0.997237     0.998147     0.998441     0.998727     0.998866
     0.998999     0.999134     0.999266
      509.000     0.996699     0.997760     0.998108     0.998447     0.998613
     0.998774     0.998936     0.999097
      510.000     0.996423     0.997570     0.997945     0.998313     0.998492
     0.998665     0.998841     0.999016
      511.000     0.996897     0.997905     0.998233     0.998553     0.998709
     0.998860     0.999012     0.999163
      512.000     0.998015     0.998687     0.998903     0.999112     0.999212
     0.999308     0.999404     0.999496
      513.000     0.998898     0.999280     0.999401     0.999517     0.999572
     0.999625     0.999678     0.999730
      514.000     0.999449     0.999647     0.999709     0.999766     0.999793
     0.999819     0.999845     0.999870
      515.000     0.999646     0.999776     0.999816     0.999853     0.999870
     0.999887     0.999903     0.999919
      516.000     0.999688     0.999805     0.999840     0.999873     0.999888
     0.999903     0.999917     0.999931
      517.000     0.999650     0.999780     0.999819     0.999856     0.999874
     0.999890     0.999906     0.999922
      518.000     0.999468     0.999666     0.999726     0.999782     0.999809
     0.999833     0.999858     0.999881
      519.000     0.999216     0.999509     0.999597     0.999680     0.999718
     0.999754     0.999790     0.999824
      520.000     0.998860     0.999286     0.999416     0.999537     0.999594
     0.999647     0.999699     0.999748
      521.000     0.998412     0.999009     0.999188     0.999355     0.999433
     0.999507     0.999579     0.999648
      522.000     0.998120     0.998834     0.999048     0.999248     0.999340
     0.999426     0.999511     0.999592
      523.000     0.998037     0.998803     0.999030     0.999238     0.999334
     0.999423     0.999510     0.999592
      524.000     0.998178     0.998915     0.999128     0.999322     0.999410
     0.999491     0.999569     0.999643
      525.000     0.998419     0.999083     0.999271     0.999439     0.999514
     0.999583     0.999650     0.999712
      526.000     0.998590     0.999205     0.999376     0.999527     0.999595
     0.999656     0.999715     0.999767
      527.000     0.998662     0.999256     0.999421     0.999568     0.999632
     0.999691     0.999746     0.999795
      528.000     0.998647     0.999247     0.999414     0.999562     0.999628
     0.999688     0.999744     0.999793
      529.000     0.998579     0.999201     0.999375     0.999531     0.999600
     0.999663     0.999722     0.999775
      530.000     0.998381     0.999074     0.999271     0.999449     0.999528
     0.999602     0.999671     0.999734
      531.000     0.998008     0.998825     0.999066     0.999287     0.999388
     0.999481     0.999571     0.999651
      532.000     0.997432     0.998425     0.998728     0.999014     0.999148
     0.999273     0.999394     0.999504
      533.000     0.996790     0.997969     0.998339     0.998692     0.998861
     0.999020     0.999176     0.999321
      534.000     0.996097     0.997477     0.997918     0.998342     0.998545
     0.998740     0.998931     0.999111
      535.000     0.995062     0.996739     0.997285     0.997817     0.998075
     0.998323     0.998570     0.998804
      536.000     0.993288     0.995482     0.996208     0.996924     0.997275
     0.997614     0.997953     0.998280
      537.000     0.990559     0.993550     0.994548     0.995540     0.996033
     0.996507     0.996984     0.997449
      538.000     0.987197     0.991119     0.992446     0.993771     0.994430
     0.995072     0.995725     0.996370
      539.000     0.983247     0.988308     0.990027     0.991749     0.992607
     0.993444     0.994300     0.995151
      540.000     0.977568     0.984232     0.986504     0.988783     0.989922
     0.991036     0.992179     0.993323
      541.000     0.969193     0.978159     0.981242     0.984348     0.985907
     0.987436     0.989010     0.990594
      542.000     0.959965     0.971446     0.975413     0.979425     0.981446
     0.983433     0.985486     0.987560
      543.000     0.956448     0.968921     0.973232     0.977592     0.979789
     0.981949     0.984181     0.986437
      544.000     0.962131     0.973329     0.977155     0.980995     0.982915
     0.984796     0.986729     0.988674
      545.000     0.974146     0.982271     0.984978     0.987655     0.988973
     0.990246     0.991528     0.992791
      546.000     0.985671     0.990567     0.992126     0.993618     0.994334
     0.995021     0.995708     0.996376
      547.000     0.992971     0.995588     0.996384     0.997132     0.997484
     0.997816     0.998144     0.998455
      548.000     0.995541     0.997425     0.997986     0.998501     0.998735
     0.998951     0.999151     0.999324
      549.000     0.991899     0.995560     0.996715     0.997821     0.998345
     0.998823     0.999241     0.999540
      550.000     0.984601     0.991304     0.993550     0.995781     0.996872
     0.997891     0.998793     0.999420
      551.000     0.981577     0.989249     0.991924     0.994645     0.996009
     0.997308     0.998479     0.999307
      552.000     0.982430     0.989684     0.992221     0.994814     0.996120
     0.997373     0.998511     0.999319
      553.000     0.984192     0.990905     0.993196     0.995503     0.996653
     0.997736     0.998705     0.999388
      554.000     0.987876     0.993145     0.994903     0.996645     0.997500
     0.998290     0.998986     0.999475
      555.000     0.991721     0.995407     0.996589     0.997732     0.998277
     0.998779     0.999221     0.999536
      556.000     0.994515     0.996995     0.997757     0.998471     0.998800
     0.999101     0.999367     0.999564
      557.000     0.996323     0.997958     0.998446     0.998896     0.999100
     0.999287     0.999453     0.999586
      558.000     0.997305     0.998462     0.998803     0.999116     0.999258
     0.999388     0.999508     0.999610
      559.000     0.997842     0.998736     0.999000     0.999241     0.999351
     0.999453     0.999549     0.999634
      560.000     0.998147     0.998891     0.999112     0.999315     0.999408
     0.999496     0.999579     0.999655
      561.000     0.998258     0.998940     0.999145     0.999334     0.999422
     0.999505     0.999584     0.999658
      562.000     0.998225     0.998909     0.999115     0.999308     0.999399
     0.999483     0.999565     0.999641
      563.000     0.998097     0.998820     0.999040     0.999247     0.999344
     0.999435     0.999524     0.999607
      564.000     0.997848     0.998653     0.998901     0.999136     0.999247
     0.999351     0.999452     0.999547
      565.000     0.997426     0.998368     0.998662     0.998942     0.999075
     0.999201     0.999325     0.999441
      566.000     0.996816     0.997956     0.998317     0.998662     0.998828
     0.998985     0.999140     0.999286
      567.000     0.996054     0.997443     0.997888     0.998317     0.998523
     0.998720     0.998914     0.999098
      568.000     0.995175     0.996849     0.997392     0.997921     0.998177
     0.998422     0.998663     0.998889
      569.000     0.994218     0.996214     0.996864     0.997497     0.997805
     0.998100     0.998391     0.998665
      570.000     0.993180     0.995516     0.996277     0.997021     0.997384
     0.997731     0.998074     0.998399
      571.000     0.992131     0.994804     0.995674     0.996523     0.996936
     0.997333     0.997727     0.998102
      572.000     0.991029     0.994019     0.995000     0.995962     0.996432
     0.996884     0.997336     0.997770
      573.000     0.989592     0.992973     0.994091     0.995193     0.995733
     0.996255     0.996779     0.997289
      574.000     0.987667     0.991565     0.992866     0.994157     0.994794
     0.995412     0.996036     0.996650
      575.000     0.985691     0.990132     0.991623     0.993108     0.993845
     0.994560     0.995286     0.996004
      576.000     0.984820     0.989550     0.991134     0.992709     0.993492
     0.994248     0.995016     0.995776
      577.000     0.985612     0.990137     0.991643     0.993137     0.993877
     0.994593     0.995319     0.996036
      578.000     0.987388     0.991398     0.992732     0.994052     0.994703
     0.995333     0.995970     0.996595
      579.000     0.989781     0.993127     0.994230     0.995315     0.995847
     0.996359     0.996873     0.997374
      580.000     0.992406     0.995005     0.995844     0.996661     0.997058
     0.997438     0.997815     0.998177
      581.000     0.994374     0.996388     0.997030     0.997650     0.997947
     0.998230     0.998505     0.998763
      582.000     0.995609     0.997262     0.997779     0.998271     0.998505
     0.998726     0.998939     0.999134
      583.000     0.996126     0.997648     0.998120     0.998568     0.998779
     0.998976     0.999165     0.999330
      584.000     0.995897     0.997579     0.998104     0.998603     0.998838
     0.999058     0.999262     0.999432
      585.000     0.995570     0.997398     0.997981     0.998545     0.998816
     0.999069     0.999302     0.999488
      586.000     0.995540     0.997365     0.997957     0.998535     0.998815
     0.999079     0.999322     0.999515
      587.000     0.995511     0.997355     0.997952     0.998535     0.998817
     0.999083     0.999328     0.999521
      588.000     0.995650     0.997443     0.998018     0.998574     0.998841
     0.999093     0.999324     0.999509
      589.000     0.995920     0.997577     0.998103     0.998609     0.998851
     0.999077     0.999288     0.999460
      590.000     0.995706     0.997411     0.997947     0.998460     0.998703
     0.998932     0.999147     0.999331
      591.000     0.995064     0.996987     0.997587     0.998156     0.998424
     0.998676     0.998916     0.999128
      592.000     0.994215     0.996374     0.997054     0.997703     0.998011
     0.998301     0.998581     0.998837
      593.000     0.992958     0.995486     0.996289     0.997061     0.997432
     0.997783     0.998128     0.998451
      594.000     0.991120     0.994219     0.995210     0.996167     0.996631
     0.997071     0.997505     0.997920
      595.000     0.989167     0.992824     0.994009     0.995163     0.995722
     0.996259     0.996795     0.997314
      596.000     0.987934     0.991955     0.993262     0.994538     0.995159
     0.995755     0.996352     0.996934
      597.000     0.987682     0.991814     0.993153     0.994457     0.995091
     0.995698     0.996306     0.996898
      598.000     0.987901     0.992021     0.993347     0.994632     0.995254
     0.995849     0.996442     0.997018
      599.000     0.988542     0.992525     0.993794     0.995017     0.995605
     0.996166     0.996723     0.997260
      600.000     0.989520     0.993267     0.994446     0.995574     0.996112
     0.996623     0.997128     0.997609
      601.000     0.990363     0.993973     0.995089     0.996147     0.996645
     0.997114     0.997568     0.997991
      602.000     0.988749     0.993356     0.994773     0.996106     0.996728
     0.997305     0.997842     0.998298
      603.000     0.983774     0.990610     0.992799     0.994916     0.995931
     0.996875     0.997731     0.998391
      604.000     0.981420     0.989010     0.991536     0.994053     0.995298
     0.996471     0.997545     0.998363
      605.000     0.982556     0.989447     0.991783     0.994135     0.995311
     0.996433     0.997472     0.998278
      606.000     0.981871     0.989011     0.991411     0.993810     0.995004
     0.996134     0.997181     0.998004
      607.000     0.981427     0.988608     0.991000     0.993373     0.994539
     0.995645     0.996678     0.997513
      608.000     0.981935     0.988626     0.990839     0.993020     0.994087
     0.995099     0.996060     0.996885
      609.000     0.981738     0.988268     0.990406     0.992498     0.993515
     0.994482     0.995417     0.996261
      610.000     0.980585     0.987289     0.989473     0.991602     0.992635
     0.993618     0.994582     0.995486
      611.000     0.976383     0.984206     0.986768     0.989275     0.990498
     0.991673     0.992849     0.993993
      612.000     0.966126     0.976809     0.980363     0.983878     0.985610
     0.987288     0.988989     0.990672
      613.000     0.948002     0.963735     0.969065     0.974391     0.977043
     0.979629     0.982275     0.984920
      614.000     0.925997     0.947927     0.955437     0.962985     0.966765
     0.970460     0.974255     0.978069
      615.000     0.906129     0.933715     0.943183     0.952711     0.957487
     0.962160     0.966962     0.971790
      616.000     0.889076     0.921870     0.933090     0.944365     0.950023
     0.955529     0.961172     0.966841
      617.000     0.867774     0.906259     0.919542     0.932935     0.939655
     0.946244     0.953026     0.959851
      618.000     0.842619     0.887179     0.902746     0.918554     0.926542
     0.934398     0.942519     0.950731
      619.000     0.825753     0.874109     0.891162     0.908578     0.917430
     0.926156     0.935205     0.944390
      620.000     0.830793     0.877850     0.894426     0.911345     0.919940
     0.928410     0.937192     0.946102
      621.000     0.850360     0.892493     0.907249     0.922260     0.929860
     0.937342     0.945086     0.952926
      622.000     0.878147     0.913373     0.925550     0.937869     0.944101
     0.950171     0.956409     0.962702
      623.000     0.908198     0.935535     0.944877     0.954250     0.958934
     0.963511     0.968204     0.972906
      624.000     0.935058     0.955314     0.962083     0.968795     0.972112
     0.975330     0.978599     0.981836
      625.000     0.956085     0.970563     0.975315     0.979971     0.982243
     0.984422     0.986597     0.988705
      626.000     0.971542     0.981268     0.984405     0.987451     0.988928
     0.990343     0.991755     0.993116
      627.000     0.981515     0.988003     0.990086     0.992106     0.993082
     0.994014     0.994934     0.995804
      628.000     0.987443     0.991984     0.993445     0.994860     0.995542
     0.996183     0.996805     0.997380
      629.000     0.991287     0.994479     0.995504     0.996497     0.996975
     0.997428     0.997866     0.998266
      630.000     0.993384     0.995833     0.996622     0.997389     0.997762
     0.998113     0.998449     0.998749
      631.000     0.994288     0.996417     0.997114     0.997797     0.998130
     0.998444     0.998744     0.999004
      632.000     0.994544     0.996590     0.997266     0.997932     0.998257
     0.998566     0.998858     0.999107
      633.000     0.994468     0.996566     0.997262     0.997948     0.998285
     0.998604     0.998904     0.999156
      634.000     0.994042     0.996323     0.997081     0.997831     0.998199
     0.998547     0.998874     0.999144
      635.000     0.993275     0.995881     0.996749     0.997607     0.998027
     0.998425     0.998796     0.999098
      636.000     0.991964     0.995099     0.996148     0.997190     0.997700
     0.998185     0.998634     0.998994
      637.000     0.990745     0.994332     0.995542     0.996750     0.997346
     0.997912     0.998439     0.998859
      638.000     0.990151     0.993921     0.995195     0.996471     0.997104
     0.997705     0.998267     0.998719
      639.000     0.989332     0.993379     0.994745     0.996112     0.996788
     0.997433     0.998038     0.998532
      640.000     0.987955     0.992538     0.994073     0.995598     0.996349
     0.997064     0.997736     0.998289
      641.000     0.986148     0.991477     0.993224     0.994940     0.995777
     0.996569     0.997313     0.997930
